#Wavelength     Normalized Flux
#[Angstrom]       [Counts]
3650.00           0.610363
3652.00           0.571731
3654.00           0.539539
3656.00           0.427267
3658.00           0.376161
3660.00           0.399098
3662.00           0.495676
3664.00           0.546782
3666.00           0.490043
3668.00           0.451411
3670.00           0.357650
3672.00           0.307752
3674.00           0.263889
3676.00           0.293667
3678.00           0.385014
3680.00           0.464691
3682.00           0.492457
3684.00           0.457850
3686.00           0.389441
3688.00           0.380588
3690.00           0.437729
3692.00           0.544368
3694.00           0.582999
3696.00           0.540746
3698.00           0.507346
3700.00           0.514187
3702.00           0.519418
3704.00           0.490847
3706.00           0.494872
3708.00           0.549197
3710.00           0.644970
3712.00           0.692856
3714.00           0.737121
3716.00           0.838528
3718.00           1.067498
3720.00           1.423227
3722.00           2.042534
3724.00           2.839302
3726.00           3.227224
3728.00           2.817572
3730.00           1.846159
3732.00           1.009954
3734.00           0.645775
3736.00           0.552818
3738.00           0.537527
3740.00           0.553221
3742.00           0.560062
3744.00           0.582596
3746.00           0.543161
3748.00           0.548392
3750.00           0.545172
3752.00           0.569317
3754.00           0.552818
3756.00           0.570927
3758.00           0.591449
3760.00           0.605534
3762.00           0.563683
3764.00           0.556842
3766.00           0.531491
3768.00           0.551209
3770.00           0.536722
3772.00           0.559257
3774.00           0.600705
3776.00           0.626057
3778.00           0.625252
3780.00           0.615996
3782.00           0.582194
3784.00           0.570524
3786.00           0.547587
3788.00           0.539136
3790.00           0.514590
3792.00           0.537124
3794.00           0.589035
3796.00           0.588230
3798.00           0.587023
3800.00           0.576560
3802.00           0.625654
3804.00           0.618008
3806.00           0.616801
3808.00           0.611167
3810.00           0.604326
3812.00           0.615192
3814.00           0.601510
3816.00           0.598290
3818.00           0.543965
3820.00           0.549599
3822.00           0.562476
3824.00           0.578975
3826.00           0.574951
3828.00           0.574146
3830.00           0.585413
3832.00           0.577365
3834.00           0.594266
3836.00           0.587023
3838.00           0.597888
3840.00           0.628471
3842.00           0.671126
3844.00           0.694466
3846.00           0.686015
3848.00           0.669517
3850.00           0.649799
3852.00           0.652616
3854.00           0.665493
3856.00           0.702917
3858.00           0.718208
3860.00           0.786215
3862.00           0.937521
3864.00           1.152809
3866.00           1.311358
3868.00           1.215182
3870.00           0.931082
3872.00           0.642555
3874.00           0.559659
3876.00           0.585413
3878.00           0.606339
3880.00           0.596278
3882.00           0.590645
3884.00           0.681187
3886.00           0.735512
3888.00           0.733902
3890.00           0.620020
3892.00           0.548794
3894.00           0.549599
3896.00           0.576963
3898.00           0.604326
3900.00           0.618411
3902.00           0.666700
3904.00           0.694466
3906.00           0.690844
3908.00           0.677967
3910.00           0.679979
3912.00           0.668310
3914.00           0.661469
3916.00           0.651811
3918.00           0.667907
3920.00           0.666700
3922.00           0.674748
3924.00           0.656640
3926.00           0.609558
3928.00           0.564890
3930.00           0.554830
3932.00           0.587023
3934.00           0.597486
3936.00           0.630483
3938.00           0.641348
3940.00           0.641348
3942.00           0.663481
3944.00           0.681991
3946.00           0.685613
3948.00           0.659054
3950.00           0.629678
3952.00           0.662676
3954.00           0.664285
3956.00           0.675553
3958.00           0.680784
3960.00           0.704124
3962.00           0.755632
3964.00           0.838126
3966.00           0.910157
3968.00           0.903316
3970.00           0.786617
3972.00           0.671931
3974.00           0.619216
3976.00           0.639336
3978.00           0.651811
3980.00           0.673138
3982.00           0.700905
3984.00           0.724647
3986.00           0.726256
3988.00           0.716196
3990.00           0.722232
3992.00           0.718208
3994.00           0.706136
3996.00           0.691649
3998.00           0.669517
4000.00           0.645372
4002.00           0.656237
4004.00           0.695673
4006.00           0.731890
4008.00           0.714989
4010.00           0.702112
4012.00           0.731085
4014.00           0.754022
4016.00           0.760058
4018.00           0.724647
4020.00           0.721830
4022.00           0.722232
4024.00           0.710965
4026.00           0.710965
4028.00           0.700502
4030.00           0.686418
4032.00           0.674346
4034.00           0.660664
4036.00           0.692454
4038.00           0.721830
4040.00           0.760863
4042.00           0.768107
4044.00           0.760461
4046.00           0.762473
4048.00           0.770924
4050.00           0.765290
4052.00           0.732292
4054.00           0.719013
4056.00           0.731085
4058.00           0.770924
4060.00           0.789837
4062.00           0.785008
4064.00           0.799092
4066.00           0.793056
4068.00           0.788227
4070.00           0.778972
4072.00           0.771728
4074.00           0.790642
4076.00           0.781789
4078.00           0.786617
4080.00           0.743962
4082.00           0.704124
4084.00           0.698893
4086.00           0.703721
4088.00           0.704929
4090.00           0.688832
4092.00           0.719818
4094.00           0.781386
4096.00           0.905730
4098.00           1.075547
4100.00           1.133091
4102.00           0.982590
4104.00           0.765692
4106.00           0.646177
4108.00           0.662676
4110.00           0.669919
4112.00           0.677162
4114.00           0.664285
4116.00           0.661871
4118.00           0.650201
4120.00           0.668712
4122.00           0.687223
4124.00           0.714989
4126.00           0.731085
4128.00           0.757644
4130.00           0.756035
4132.00           0.754022
4134.00           0.741145
4136.00           0.755632
4138.00           0.751206
4140.00           0.729073
4142.00           0.716196
4144.00           0.731890
4146.00           0.736719
4148.00           0.724244
4150.00           0.721830
4152.00           0.757242
4154.00           0.797080
4156.00           0.820420
4158.00           0.808750
4160.00           0.791446
4162.00           0.788227
4164.00           0.806738
4166.00           0.817200
4168.00           0.798690
4170.00           0.772936
4172.00           0.772131
4174.00           0.762473
4176.00           0.758449
4178.00           0.747986
4180.00           0.732695
4182.00           0.747584
4184.00           0.776557
4186.00           0.811969
4188.00           0.827663
4190.00           0.818408
4192.00           0.795873
4194.00           0.778167
4196.00           0.752815
4198.00           0.749596
4200.00           0.765692
4202.00           0.807140
4204.00           0.852210
4206.00           0.854625
4208.00           0.832492
4210.00           0.831285
4212.00           0.834906
4214.00           0.843759
4216.00           0.833297
4218.00           0.819615
4220.00           0.791446
4222.00           0.788629
4224.00           0.787020
4226.00           0.810762
4228.00           0.802311
4230.00           0.807543
4232.00           0.824041
4234.00           0.802714
4236.00           0.789434
4238.00           0.781386
4240.00           0.804323
4242.00           0.788629
4244.00           0.758851
4246.00           0.754022
4248.00           0.791849
4250.00           0.773338
4252.00           0.795068
4254.00           0.804726
4256.00           0.844967
4258.00           0.818810
4260.00           0.788629
4262.00           0.769716
4264.00           0.776960
4266.00           0.787020
4268.00           0.796678
4270.00           0.813981
4272.00           0.807945
4274.00           0.787422
4276.00           0.768107
4278.00           0.735512
4280.00           0.741145
4282.00           0.737926
4284.00           0.795873
4286.00           0.820822
4288.00           0.805531
4290.00           0.773740
4292.00           0.760863
4294.00           0.766497
4296.00           0.769716
4298.00           0.757644
4300.00           0.763680
4302.00           0.762875
4304.00           0.785008
4306.00           0.783398
4308.00           0.772533
4310.00           0.766095
4312.00           0.776557
4314.00           0.772936
4316.00           0.767704
4318.00           0.762473
4320.00           0.762071
4322.00           0.746377
4324.00           0.769716
4326.00           0.803519
4328.00           0.822029
4330.00           0.807945
4332.00           0.889232
4334.00           1.240534
4336.00           1.771311
4338.00           2.002695
4340.00           1.679159
4342.00           1.136310
4344.00           0.801909
4346.00           0.744365
4348.00           0.726256
4350.00           0.688430
4352.00           0.719818
4354.00           0.792654
4356.00           0.932289
4358.00           1.029270
4360.00           1.032489
4362.00           0.966092
4364.00           0.888024
4366.00           0.849796
4368.00           0.824041
4370.00           0.809152
4372.00           0.793056
4374.00           0.789032
4376.00           0.793458
4378.00           0.796275
4380.00           0.784605
4382.00           0.761266
4384.00           0.744767
4386.00           0.743962
4388.00           0.762875
4390.00           0.756437
4392.00           0.750803
4394.00           0.746377
4396.00           0.772936
4398.00           0.781789
4400.00           0.785813
4402.00           0.793056
4404.00           0.803116
4406.00           0.809152
4408.00           0.806335
4410.00           0.818810
4412.00           0.810360
4414.00           0.813176
4416.00           0.817200
4418.00           0.826053
4420.00           0.829273
4422.00           0.822834
4424.00           0.823639
4426.00           0.807945
4428.00           0.780581
4430.00           0.771326
4432.00           0.793458
4434.00           0.842955
4436.00           0.855832
4438.00           0.858649
4440.00           0.847784
4442.00           0.863478
4444.00           0.862673
4446.00           0.842552
4448.00           0.824041
4450.00           0.826858
4452.00           0.854222
4454.00           0.862673
4456.00           0.846576
4458.00           0.837321
4460.00           0.838528
4462.00           0.831687
4464.00           0.846174
4466.00           0.878367
4468.00           0.914986
4470.00           0.919815
4472.00           0.887220
4474.00           0.853820
4476.00           0.836114
4478.00           0.844564
4480.00           0.850600
4482.00           0.846576
4484.00           0.864685
4486.00           0.897682
4488.00           0.905730
4490.00           0.886817
4492.00           0.873135
4494.00           0.847784
4496.00           0.845369
4498.00           0.823639
4500.00           0.843759
4502.00           0.857039
4504.00           0.880781
4506.00           0.883196
4508.00           0.880781
4510.00           0.884805
4512.00           0.894865
4514.00           0.894061
4516.00           0.871526
4518.00           0.866294
4520.00           0.844564
4522.00           0.848588
4524.00           0.826456
4526.00           0.832492
4528.00           0.827663
4530.00           0.837321
4532.00           0.831285
4534.00           0.834102
4536.00           0.855429
4538.00           0.873135
4540.00           0.897280
4542.00           0.884403
4544.00           0.896475
4546.00           0.876757
4548.00           0.876355
4550.00           0.863075
4552.00           0.864685
4554.00           0.869916
4556.00           0.865892
4558.00           0.884403
4560.00           0.897682
4562.00           0.902511
4564.00           0.906133
4566.00           0.909352
4568.00           0.916595
4570.00           0.904121
4572.00           0.896073
4574.00           0.884403
4576.00           0.894061
4578.00           0.889634
4580.00           0.914583
4582.00           0.921022
4584.00           0.920217
4586.00           0.904523
4588.00           0.898487
4590.00           0.908950
4592.00           0.906535
4594.00           0.899292
4596.00           0.896877
4598.00           0.899694
4600.00           0.893256
4602.00           0.900097
4604.00           0.919010
4606.00           0.941142
4608.00           0.942349
4610.00           0.939935
4612.00           0.943557
4614.00           0.941947
4616.00           0.920620
4618.00           0.891244
4620.00           0.890439
4622.00           0.895670
4624.00           0.912169
4626.00           0.920217
4628.00           0.928668
4630.00           0.934704
4632.00           0.939130
4634.00           0.955227
4636.00           0.999894
4638.00           1.019612
4640.00           1.011966
4642.00           0.970116
4644.00           0.930277
4646.00           0.904121
4648.00           0.891646
4650.00           0.909755
4652.00           0.946374
4654.00           0.972128
4656.00           0.979773
4658.00           0.973737
4660.00           0.953617
4662.00           0.929472
4664.00           0.919412
4666.00           0.915791
4668.00           0.925851
4670.00           0.924241
4672.00           0.936313
4674.00           0.908950
4676.00           0.898085
4678.00           0.892853
4680.00           0.935508
4682.00           0.985810
4684.00           0.999491
4686.00           0.972932
4688.00           0.927863
4690.00           0.915388
4692.00           0.912974
4694.00           0.915791
4696.00           0.908950
4698.00           0.912571
4700.00           0.916193
4702.00           0.926253
4704.00           0.930277
4706.00           0.952007
4708.00           0.970116
4710.00           0.988626
4712.00           0.966092
4714.00           0.939935
4716.00           0.932692
4718.00           0.906535
4720.00           0.894865
4722.00           0.893256
4724.00           0.914181
4726.00           0.902109
4728.00           0.894463
4730.00           0.912169
4732.00           0.943557
4734.00           0.951605
4736.00           0.952410
4738.00           0.949190
4740.00           0.949593
4742.00           0.950800
4744.00           0.952812
4746.00           0.936313
4748.00           0.918205
4750.00           0.924643
4752.00           0.922229
4754.00           0.923034
4756.00           0.912974
4758.00           0.903718
4760.00           0.900901
4762.00           0.919412
4764.00           0.943959
4766.00           0.937118
4768.00           0.917400
4770.00           0.904121
4772.00           0.916595
4774.00           0.933496
4776.00           0.952410
4778.00           0.945971
4780.00           0.919412
4782.00           0.906133
4784.00           0.922229
4786.00           0.940740
4788.00           0.947178
4790.00           0.942349
4792.00           0.945569
4794.00           0.951605
4796.00           0.953214
4798.00           0.945166
4800.00           0.934301
4802.00           0.933496
4804.00           0.930680
4806.00           0.927058
4808.00           0.914181
4810.00           0.916595
4812.00           0.941947
4814.00           0.952410
4816.00           0.963677
4818.00           0.937521
4820.00           0.930680
4822.00           0.904121
4824.00           0.921827
4826.00           0.932692
4828.00           0.947581
4830.00           0.940338
4832.00           0.941545
4834.00           0.944362
4836.00           0.925851
4838.00           0.918205
4840.00           0.912974
4842.00           0.926656
4844.00           0.927863
4846.00           0.919010
4848.00           0.901304
4850.00           0.938728
4852.00           1.046573
4854.00           1.472724
4856.00           2.889603
4858.00           4.863014
4860.00           5.615920
4862.00           4.309300
4864.00           2.203497
4866.00           1.007540
4868.00           0.816798
4870.00           0.807140
4872.00           0.829273
4874.00           0.847784
4876.00           0.895670
4878.00           0.889634
4880.00           0.903316
4882.00           0.898487
4884.00           0.898889
4886.00           0.910559
4888.00           0.904121
4890.00           0.920217
4892.00           0.932692
4894.00           0.953617
4896.00           0.969713
4898.00           0.956836
4900.00           0.932289
4902.00           0.921827
4904.00           0.929070
4906.00           0.945569
4908.00           0.939533
4910.00           0.941142
4912.00           0.929875
4914.00           0.921827
4916.00           0.909755
4918.00           0.912169
4920.00           0.921827
4922.00           0.919815
4924.00           0.939130
4926.00           0.962067
4928.00           0.974945
4930.00           0.966896
4932.00           0.933496
4934.00           0.936313
4936.00           0.958044
4938.00           0.992248
4940.00           1.007137
4942.00           0.999894
4944.00           1.008747
4946.00           1.039330
4948.00           1.091241
4950.00           1.230876
4952.00           2.154806
4954.00           4.883939
4956.00           8.282680
4958.00           9.274616
4960.00           6.780489
4962.00           3.218773
4964.00           1.260654
4966.00           0.952007
4968.00           0.945569
4970.00           0.960860
4972.00           0.969311
4974.00           0.980578
4976.00           0.964884
4978.00           0.963275
4980.00           0.968104
4982.00           0.989431
4984.00           1.007540
4986.00           1.005125
4988.00           0.986212
4990.00           0.995870
4992.00           1.028062
4994.00           1.089229
4996.00           1.198684
4998.00           1.580971
5000.00           4.162421
5002.00          12.487040
5004.00          23.070380
5006.00          26.634510
5008.00          19.283320
5010.00           8.327347
5012.00           2.158830
5014.00           1.073937
5016.00           1.026453
5018.00           0.978969
5020.00           0.952812
5022.00           0.956031
5024.00           0.967299
5026.00           0.979773
5028.00           0.985407
5030.00           0.969713
5032.00           0.956031
5034.00           0.936716
5036.00           0.935508
5038.00           0.952812
5040.00           0.958848
5042.00           0.954422
5044.00           0.943154
5046.00           0.948788
5048.00           0.955227
5050.00           0.957641
5052.00           0.964080
5054.00           0.968104
5056.00           0.971725
5058.00           0.963677
5060.00           0.957239
5062.00           0.937118
5064.00           0.925448
5066.00           0.932289
5068.00           0.943557
5070.00           0.951605
5072.00           0.949995
5074.00           0.947178
5076.00           0.933899
5078.00           0.922632
5080.00           0.912974
5082.00           0.929070
5084.00           0.934301
5086.00           0.931082
5088.00           0.943557
5090.00           0.969713
5092.00           0.989431
5094.00           0.974140
5096.00           0.939533
5098.00           0.908950
5100.00           0.894463
5102.00           0.901304
5104.00           0.915791
5106.00           0.932692
5108.00           0.939130
5110.00           0.942349
5112.00           0.935508
5114.00           0.925851
5116.00           0.931887
5118.00           0.923436
5120.00           0.944362
5122.00           0.971725
5124.00           1.009552
5126.00           1.017197
5128.00           1.003113
5130.00           0.980578
5132.00           0.967299
5134.00           0.961665
5136.00           0.963677
5138.00           0.972932
5140.00           0.984200
5142.00           0.989834
5144.00           0.970920
5146.00           0.949995
5148.00           0.954019
5150.00           0.982993
5152.00           0.991041
5154.00           0.966494
5156.00           0.940740
5158.00           0.951605
5160.00           0.976957
5162.00           0.978969
5164.00           0.941545
5166.00           0.901304
5168.00           0.897682
5170.00           0.936716
5172.00           0.987017
5174.00           1.004723
5176.00           0.982188
5178.00           0.944764
5180.00           0.920620
5182.00           0.907742
5184.00           0.905328
5186.00           0.916193
5188.00           0.939935
5190.00           0.963677
5192.00           0.976554
5194.00           0.989834
5196.00           1.028867
5198.00           1.048585
5200.00           1.030074
5202.00           0.997479
5204.00           0.976554
5206.00           0.973737
5208.00           0.954824
5210.00           0.945569
5212.00           0.945569
5214.00           0.953214
5216.00           0.973335
5218.00           0.987017
5220.00           0.993455
5222.00           0.984602
5224.00           0.968104
5226.00           0.952410
5228.00           0.938325
5230.00           0.936313
5232.00           0.935508
5234.00           0.933899
5236.00           0.947178
5238.00           0.973737
5240.00           0.982993
5242.00           0.968506
5244.00           0.939533
5246.00           0.935911
5248.00           0.965287
5250.00           0.994663
5252.00           1.005125
5254.00           1.006735
5256.00           0.995467
5258.00           0.984200
5260.00           0.969713
5262.00           0.961263
5264.00           0.966896
5266.00           0.968506
5268.00           0.968104
5270.00           0.968908
5272.00           0.976152
5274.00           0.991041
5276.00           0.983798
5278.00           0.964884
5280.00           0.954422
5282.00           0.966092
5284.00           0.982188
5286.00           0.993053
5288.00           1.005930
5290.00           1.020819
5292.00           1.009954
5294.00           0.984602
5296.00           0.966494
5298.00           0.969311
5300.00           0.966896
5302.00           0.948788
5304.00           0.948788
5306.00           0.970116
5308.00           0.995467
5310.00           1.002308
5312.00           0.999491
5314.00           0.994260
5316.00           0.990236
5318.00           0.980176
5320.00           0.952812
5322.00           0.930277
5324.00           0.932692
5326.00           0.963677
5328.00           0.992248
5330.00           1.005930
5332.00           1.003113
5334.00           0.983798
5336.00           0.962067
5338.00           0.958848
5340.00           0.982993
5342.00           1.003113
5344.00           1.001906
5346.00           0.993858
5348.00           1.004320
5350.00           1.017600
5352.00           1.011966
5354.00           0.977761
5356.00           0.942752
5358.00           0.947178
5360.00           0.974945
5362.00           0.999491
5364.00           1.009954
5366.00           1.013978
5368.00           1.025246
5370.00           1.024441
5372.00           1.017600
5374.00           1.009552
5376.00           0.998687
5378.00           0.993455
5380.00           0.996272
5382.00           0.995065
5384.00           0.984200
5386.00           0.976554
5388.00           0.978566
5390.00           0.989431
5392.00           0.991443
5394.00           0.981383
5396.00           0.960860
5398.00           0.942349
5400.00           0.945569
5402.00           0.957239
5404.00           0.969311
5406.00           0.975749
5408.00           0.983798
5410.00           0.996272
5412.00           1.002308
5414.00           0.998284
5416.00           0.980176
5418.00           0.969713
5420.00           0.983798
5422.00           1.006332
5424.00           1.007540
5426.00           0.988224
5428.00           0.974140
5430.00           0.975749
5432.00           0.980981
5434.00           0.986614
5436.00           0.999491
5438.00           1.003918
5440.00           0.997479
5442.00           0.980981
5444.00           0.970116
5446.00           0.958848
5448.00           0.936313
5450.00           0.915388
5452.00           0.921022
5454.00           0.947178
5456.00           0.987419
5458.00           1.025648
5460.00           1.045366
5462.00           1.038525
5464.00           1.005930
5466.00           0.983798
5468.00           0.989029
5470.00           1.006332
5472.00           1.009954
5474.00           0.987017
5476.00           0.960860
5478.00           0.959251
5480.00           0.978566
5482.00           0.982590
5484.00           0.984200
5486.00           0.996675
5488.00           1.016795
5490.00           1.024441
5492.00           1.005125
5494.00           0.987419
5496.00           0.996272
5498.00           1.016393
5500.00           1.028062
5502.00           1.008747
5504.00           0.993858
5506.00           0.990638
5508.00           0.991443
5510.00           0.996272
5512.00           1.011161
5514.00           1.021624
5516.00           1.009552
5518.00           0.997479
5520.00           0.990236
5522.00           0.986614
5524.00           0.976152
5526.00           0.972128
5528.00           0.976554
5530.00           0.982188
5532.00           0.991846
5534.00           1.002711
5536.00           1.016795
5538.00           1.029270
5540.00           1.032087
5542.00           1.028062
5544.00           1.022831
5546.00           1.024843
5548.00           1.014381
5550.00           0.989834
5552.00           0.966092
5554.00           0.962872
5556.00           0.964884
5558.00           0.955227
5560.00           0.932692
5562.00           0.911767
5564.00           0.904926
5566.00           0.906535
5568.00           0.914583
5570.00           0.922632
5572.00           0.930277
5574.00           0.938325
5576.00           0.946374
5578.00           0.954019
5580.00           0.962067
5582.00           0.970116
5584.00           0.995467
5586.00           1.032087
5588.00           1.051000
5590.00           1.028465
5592.00           1.000296
5594.00           0.990638
5596.00           0.995467
5598.00           0.990638
5600.00           0.987017
5602.00           1.008345
5604.00           1.040135
5606.00           1.040135
5608.00           1.013173
5610.00           0.982993
5612.00           0.983798
5614.00           0.998284
5616.00           1.007942
5618.00           1.020819
5620.00           1.042952
5622.00           1.059048
5624.00           1.068706
5626.00           1.072730
5628.00           1.073535
5630.00           1.059450
5632.00           1.026855
5634.00           1.000296
5636.00           0.992651
5638.00           1.004723
5640.00           1.023636
5642.00           1.034903
5644.00           1.034903
5646.00           1.028465
5648.00           1.023234
5650.00           1.017197
5652.00           1.019210
5654.00           1.022831
5656.00           1.015588
5658.00           1.002308
5660.00           0.995065
5662.00           1.010759
5664.00           1.035708
5666.00           1.039330
5668.00           1.032489
5670.00           1.026050
5672.00           1.017197
5674.00           1.008345
5676.00           0.996675
5678.00           1.005125
5680.00           1.017600
5682.00           1.012771
5684.00           1.001101
5686.00           0.998687
5688.00           1.011564
5690.00           1.033294
5692.00           1.045366
5694.00           1.053414
5696.00           1.049793
5698.00           1.034099
5700.00           1.017600
5702.00           1.014783
5704.00           1.020417
5706.00           1.022429
5708.00           1.019612
5710.00           1.011564
5712.00           1.004320
5714.00           1.001504
5716.00           1.004320
5718.00           1.009954
5720.00           1.024441
5722.00           1.052207
5724.00           1.051000
5726.00           1.016795
5728.00           0.975749
5730.00           0.982188
5732.00           1.007942
5734.00           1.027258
5736.00           1.032489
5738.00           1.033696
5740.00           1.038525
5742.00           1.046573
5744.00           1.061865
5746.00           1.063072
5748.00           1.047781
5750.00           1.028867
5752.00           1.019612
5754.00           1.010357
5756.00           1.001504
5758.00           0.999491
5760.00           1.003113
5762.00           1.008345
5764.00           1.015990
5766.00           1.036513
5768.00           1.057841
5770.00           1.054621
5772.00           1.027258
5774.00           1.002711
5776.00           0.982993
5778.00           0.974945
5780.00           0.972530
5782.00           0.979371
5784.00           0.997882
5786.00           1.014381
5788.00           1.029270
5790.00           1.038928
5792.00           1.030074
5794.00           1.013978
5796.00           1.004723
5798.00           1.014783
5800.00           1.028465
5802.00           1.022831
5804.00           1.024843
5806.00           1.044964
5808.00           1.063072
5810.00           1.046573
5812.00           1.026453
5814.00           1.024038
5816.00           1.037720
5818.00           1.039330
5820.00           1.037318
5822.00           1.044561
5824.00           1.055024
5826.00           1.053817
5828.00           1.056633
5830.00           1.063072
5832.00           1.057438
5834.00           1.028062
5836.00           1.001906
5838.00           1.005125
5840.00           1.014381
5842.00           1.018405
5844.00           1.010357
5846.00           1.005528
5848.00           1.009552
5850.00           1.013978
5852.00           1.016795
5854.00           1.007540
5856.00           0.989029
5858.00           0.986614
5860.00           1.007540
5862.00           1.051805
5864.00           1.112166
5866.00           1.215987
5868.00           1.395461
5870.00           1.597470
5872.00           1.686402
5874.00           1.584191
5876.00           1.335100
5878.00           1.069913
5880.00           0.909352
5882.00           0.871123
5884.00           0.898085
5886.00           0.938325
5888.00           0.976957
5890.00           1.025246
5892.00           1.048988
5894.00           1.066694
5896.00           1.071925
5898.00           1.053012
5900.00           1.027660
5902.00           1.001906
5904.00           0.997479
5906.00           0.981785
5908.00           0.967701
5910.00           0.971725
5912.00           0.983798
5914.00           0.999491
5916.00           1.009954
5918.00           1.013576
5920.00           1.013978
5922.00           1.012369
5924.00           1.006332
5926.00           1.007540
5928.00           1.041342
5930.00           1.092448
5932.00           1.115788
5934.00           1.079168
5936.00           1.016795
5938.00           0.977761
5940.00           0.973335
5942.00           0.974945
5944.00           0.974542
5946.00           0.978164
5948.00           0.995870
5950.00           1.015990
5952.00           1.042549
5954.00           1.056633
5956.00           1.048183
5958.00           1.033294
5960.00           1.010357
5962.00           0.993858
5964.00           0.979371
5966.00           0.972530
5968.00           0.973737
5970.00           0.970518
5972.00           0.976152
5974.00           0.985407
5976.00           0.990236
5978.00           0.993053
5980.00           1.001504
5982.00           1.007137
5984.00           1.007942
5986.00           1.007137
5988.00           1.009149
5990.00           1.015185
5992.00           1.013978
5994.00           1.005528
5996.00           0.999491
5998.00           1.000699
6000.00           1.009149
6002.00           1.010357
6004.00           1.000296
6006.00           0.985407
6008.00           0.974542
6010.00           0.974945
6012.00           0.983798
6014.00           0.988224
6016.00           0.979371
6018.00           0.974945
6020.00           0.978969
6022.00           0.990638
6024.00           1.005528
6026.00           1.022429
6028.00           1.038525
6030.00           1.036513
6032.00           1.026050
6034.00           1.017600
6036.00           1.014381
6038.00           1.009149
6040.00           1.001101
6042.00           0.991443
6044.00           0.980578
6046.00           0.973335
6048.00           0.975749
6050.00           0.985005
6052.00           0.991041
6054.00           0.990236
6056.00           0.991443
6058.00           1.000296
6060.00           1.011161
6062.00           1.021222
6064.00           1.029672
6066.00           1.034501
6068.00           1.027258
6070.00           1.019210
6072.00           1.021222
6074.00           1.031684
6076.00           1.032891
6078.00           1.018002
6080.00           0.999089
6082.00           0.993455
6084.00           0.995065
6086.00           0.996272
6088.00           0.991041
6090.00           0.988224
6092.00           0.987822
6094.00           0.985407
6096.00           0.979773
6098.00           0.971323
6100.00           0.971323
6102.00           0.982188
6104.00           0.996272
6106.00           1.005125
6108.00           1.015185
6110.00           1.033294
6112.00           1.039732
6114.00           1.033696
6116.00           1.022026
6118.00           1.019612
6120.00           1.019612
6122.00           1.013173
6124.00           0.999491
6126.00           0.976957
6128.00           0.952812
6130.00           0.931485
6132.00           0.915791
6134.00           0.911364
6136.00           0.923839
6138.00           0.955227
6140.00           0.992248
6142.00           1.012771
6144.00           1.022026
6146.00           1.024441
6148.00           1.021222
6150.00           1.011161
6152.00           0.994663
6154.00           0.989029
6156.00           0.992248
6158.00           0.980981
6160.00           0.956836
6162.00           0.935911
6164.00           0.931082
6166.00           0.946374
6168.00           0.963677
6170.00           0.980981
6172.00           0.980578
6174.00           0.967701
6176.00           0.959251
6178.00           0.955227
6180.00           0.956434
6182.00           0.960055
6184.00           0.971725
6186.00           0.982590
6188.00           0.983798
6190.00           0.977359
6192.00           0.969311
6194.00           0.969311
6196.00           0.982590
6198.00           1.002711
6200.00           1.015990
6202.00           1.004723
6204.00           0.972530
6206.00           0.937521
6208.00           0.910962
6210.00           0.890439
6212.00           0.881183
6214.00           0.906938
6216.00           0.957641
6218.00           0.993858
6220.00           0.982188
6222.00           0.945569
6224.00           0.910157
6226.00           0.908547
6228.00           0.945569
6230.00           0.987017
6232.00           1.016795
6234.00           1.015185
6236.00           0.997077
6238.00           0.978164
6240.00           0.963275
6242.00           0.958446
6244.00           0.933899
6246.00           0.885208
6248.00           0.842150
6250.00           0.838931
6252.00           0.882391
6254.00           0.933496
6256.00           0.956031
6258.00           0.954422
6260.00           0.946374
6262.00           0.942752
6264.00           0.939533
6266.00           0.942752
6268.00           0.945166
6270.00           0.939130
6272.00           0.922229
6274.00           0.897280
6276.00           0.868709
6278.00           0.847784
6280.00           0.849393
6282.00           0.869111
6284.00           0.900901
6286.00           0.907742
6288.00           0.849393
6290.00           0.851003
6292.00           0.963677
6294.00           1.153614
6296.00           1.293250
6298.00           1.299286
6300.00           1.222828
6302.00           1.103715
6304.00           1.044964
6306.00           1.051402
6308.00           1.048988
6310.00           1.009552
6312.00           0.962872
6314.00           0.946374
6316.00           0.943154
6318.00           0.946374
6320.00           0.951202
6322.00           0.960860
6324.00           0.981785
6326.00           1.006332
6328.00           1.016393
6330.00           0.998284
6332.00           0.966896
6334.00           0.937118
6336.00           0.921424
6338.00           0.919010
6340.00           0.923436
6342.00           0.927460
6344.00           0.925448
6346.00           0.921827
6348.00           0.925046
6350.00           0.931887
6352.00           0.941947
6354.00           0.962872
6356.00           1.010357
6358.00           1.095667
6360.00           1.185404
6362.00           1.195062
6364.00           1.107337
6366.00           0.980981
6368.00           0.925046
6370.00           0.921827
6372.00           0.931887
6374.00           0.930277
6376.00           0.933899
6378.00           0.947581
6380.00           0.961665
6382.00           0.976554
6384.00           0.980981
6386.00           0.975347
6388.00           0.973335
6390.00           0.982993
6392.00           0.981383
6394.00           0.971725
6396.00           0.966092
6398.00           0.970920
6400.00           0.974140
6402.00           0.958044
6404.00           0.935911
6406.00           0.920217
6408.00           0.917803
6410.00           0.929875
6412.00           0.945166
6414.00           0.958848
6416.00           0.971323
6418.00           0.984200
6420.00           0.994663
6422.00           0.995467
6424.00           0.986212
6426.00           0.973737
6428.00           0.964482
6430.00           0.965689
6432.00           0.972128
6434.00           0.970920
6436.00           0.957641
6438.00           0.940740
6440.00           0.932289
6442.00           0.921424
6444.00           0.910157
6446.00           0.904523
6448.00           0.909755
6450.00           0.908547
6452.00           0.891646
6454.00           0.874745
6456.00           0.885208
6458.00           0.925046
6460.00           0.973737
6462.00           1.007942
6464.00           1.025648
6466.00           1.026453
6468.00           1.011966
6470.00           0.985407
6472.00           0.959251
6474.00           0.943154
6476.00           0.935911
6478.00           0.929875
6480.00           0.917400
6482.00           0.904121
6484.00           0.895268
6486.00           0.882391
6488.00           0.865490
6490.00           0.865087
6492.00           0.907742
6494.00           0.978566
6496.00           1.035306
6498.00           1.048988
6500.00           1.034099
6502.00           1.016393
6504.00           1.002711
6506.00           0.987017
6508.00           0.976554
6510.00           0.966092
6512.00           0.952410
6514.00           0.932289
6516.00           0.928265
6518.00           0.935911
6520.00           0.936313
6522.00           0.921827
6524.00           0.919815
6526.00           0.950398
6528.00           1.005528
6530.00           1.052609
6532.00           1.055426
6534.00           1.025648
6536.00           1.016795
6538.00           1.083192
6540.00           1.184599
6542.00           1.257435
6544.00           1.276751
6546.00           1.280775
6548.00           1.226047
6550.00           1.732277
6552.00           4.368052
6554.00          10.057700
6556.00          17.154170
6558.00          21.687700
6560.00          20.691340
6562.00          14.803300
6564.00           7.635607
6566.00           2.912541
6568.00           1.135908
6570.00           1.077559
6572.00           1.204317
6574.00           1.437312
6576.00           1.751190
6578.00           1.970100
6580.00           1.954809
6582.00           1.698475
6584.00           1.351196
6586.00           1.083192
6588.00           0.962067
6590.00           0.937521
6592.00           0.942349
6594.00           0.953214
6596.00           0.964884
6598.00           0.984200
6600.00           1.009552
6602.00           1.029270
6604.00           1.023636
6606.00           0.995467
6608.00           0.965689
6610.00           0.953617
6612.00           0.954824
6614.00           0.963677
6616.00           0.971725
6618.00           0.969311
6620.00           0.968908
6622.00           0.975749
6624.00           0.995467
6626.00           1.010357
6628.00           1.017600
6630.00           1.026050
6632.00           1.030074
6634.00           1.024038
6636.00           1.005528
6638.00           0.985810
6640.00           0.980981
6642.00           0.985005
6644.00           0.989431
6646.00           0.985810
6648.00           0.985005
6650.00           0.989029
6652.00           0.991041
6654.00           0.988626
6656.00           0.980981
6658.00           0.977761
6660.00           0.987017
6662.00           1.005528
6664.00           1.022026
6666.00           1.034501
6668.00           1.059853
6670.00           1.108142
6672.00           1.167296
6674.00           1.201098
6676.00           1.177356
6678.00           1.110959
6680.00           1.044561
6682.00           1.015588
6684.00           1.011564
6686.00           1.004320
6688.00           0.987017
6690.00           0.978164
6692.00           0.985407
6694.00           0.996675
6696.00           1.001906
6698.00           1.012369
6700.00           1.023636
6702.00           1.036915
6704.00           1.099289
6706.00           1.329466
6708.00           1.776139
6710.00           2.290417
6712.00           2.576932
6714.00           2.437699
6716.00           1.976941
6718.00           1.512964
6720.00           1.343551
6722.00           1.521013
6724.00           1.873925
6726.00           2.123820
6728.00           2.069093
6730.00           1.758434
6732.00           1.381377
6734.00           1.131481
6736.00           1.027660
6738.00           1.005528
6740.00           1.008345
6742.00           1.012771
6744.00           1.007137
6746.00           0.991443
6748.00           0.973335
6750.00           0.979371
6752.00           0.992248
6754.00           0.995065
6756.00           0.986614
6758.00           0.985005
6760.00           0.985407
6762.00           0.974542
6764.00           0.965287
6766.00           0.966494
6768.00           0.978566
6770.00           0.987017
6772.00           0.987419
6774.00           0.979773
6776.00           0.977761
6778.00           0.995467
6780.00           1.009954
6782.00           1.013173
6784.00           1.006332
6786.00           1.010357
6788.00           1.018002
6790.00           1.018002
6792.00           1.013173
6794.00           1.013173
6796.00           1.011564
6798.00           1.007942
6800.00           1.003918
6802.00           0.999089
6804.00           0.986212
6806.00           0.968104
6808.00           0.969311
6810.00           0.980981
6812.00           0.978566
6814.00           0.941545
6816.00           0.886012
6818.00           0.852612
6820.00           0.863880
6822.00           0.921424
6824.00           1.013978
6826.00           1.106130
6828.00           1.162064
6830.00           1.151199
6832.00           1.098081
6834.00           1.038123
6836.00           0.999089
6838.00           0.991846
6840.00           0.999089
6842.00           0.997882
6844.00           0.974542
6846.00           0.949995
6848.00           0.926656
6850.00           0.890841
6852.00           0.840943
6854.00           0.828066
6856.00           0.890439
6858.00           1.016393
6860.00           1.129872
6862.00           1.146773
6864.00           1.043354
6866.00           0.872331
6868.00           0.739536
6870.00           0.693661
6872.00           0.722232
6874.00           0.782996
6876.00           0.853820
6878.00           0.906133
6880.00           0.921827
6882.00           0.920620
6884.00           0.919412
6886.00           0.924643
6888.00           0.912169
6890.00           0.873940
6892.00           0.842552
6894.00           0.845369
6896.00           0.890841
6898.00           0.938728
6900.00           0.940338
6902.00           0.903718
6904.00           0.889232
6906.00           0.910962
6908.00           0.951605
6910.00           0.964884
6912.00           0.956031
6914.00           0.946776
6916.00           0.960860
6918.00           1.019612
6920.00           1.091241
6922.00           1.117397
6924.00           1.064682
6926.00           0.973737
6928.00           0.900901
6930.00           0.886415
6932.00           0.925046
6934.00           0.976957
6936.00           0.991041
6938.00           0.956836
6940.00           0.925448
6942.00           0.952007
6944.00           1.033294
6946.00           1.111361
6948.00           1.132286
6950.00           1.088424
6952.00           1.008345
6954.00           0.938325
6956.00           0.920620
6958.00           0.932289
6960.00           0.944764
6962.00           0.947581
6964.00           0.961263
6966.00           0.987419
6968.00           0.999491
6970.00           1.003113
6972.00           1.015588
6974.00           1.049390
6976.00           1.090838
6978.00           1.102508
6980.00           1.073535
6982.00           1.023234
6984.00           0.992248
6986.00           0.987822
6988.00           0.988626
6990.00           0.976957
6992.00           0.961665
6994.00           0.952812
6996.00           0.954019
6998.00           0.955227
7000.00           0.961665
7002.00           0.982188
7004.00           1.013576
7006.00           1.040537
7008.00           1.058243
7010.00           1.060658
7012.00           1.044561
7014.00           1.003918
7016.00           0.965287
7018.00           0.953214
7020.00           0.971725
7022.00           0.990236
7024.00           0.997077
7026.00           0.996675
7028.00           0.997077
7030.00           0.994260
7032.00           0.982993
7034.00           0.968908
7036.00           0.962067
7038.00           0.968104
7040.00           0.985810
7042.00           1.004320
7044.00           1.020819
7046.00           1.031684
7048.00           1.035306
7050.00           1.033294
7052.00           1.027660
7054.00           1.030477
7056.00           1.048585
7058.00           1.076754
7060.00           1.103715
7062.00           1.114580
7064.00           1.109349
7066.00           1.091643
7068.00           1.055024
7070.00           1.010357
7072.00           0.976957
7074.00           0.973335
7076.00           0.988626
7078.00           0.994663
7080.00           0.991443
7082.00           0.991041
7084.00           1.001906
7086.00           1.018405
7088.00           1.034501
7090.00           1.039732
7092.00           1.030879
7094.00           1.018405
7096.00           1.015185
7098.00           1.025246
7100.00           1.041342
